Wavelength	Intensity	
W	I	
nm	rel	

380.50	0.017	
381.30	0.017	
382.20	0.017	
383.10	0.018	
384.00	0.017	
384.90	0.017	
385.80	0.017	
386.70	0.018	
387.60	0.017	
388.50	0.018	
389.40	0.018	
390.20	0.018	
391.10	0.018	
392.00	0.018	
392.90	0.019	
393.80	0.019	
394.70	0.018	
395.60	0.018	
396.50	0.018	
397.40	0.018	
398.30	0.018	
399.10	0.018	
400.00	0.019	
400.90	0.019	
401.80	0.019	
402.70	0.019	
403.60	0.019	
404.50	0.019	
405.40	0.019	
406.30	0.019	
407.20	0.019	
408.00	0.019	
408.90	0.020	
409.80	0.020	
410.70	0.020	
411.60	0.020	
412.50	0.020	
413.40	0.020	
414.30	0.021	
415.20	0.021	
416.00	0.021	
416.90	0.022	
417.80	0.022	
418.70	0.022	
419.60	0.022	
420.50	0.023	
421.40	0.023	
422.30	0.023	
423.20	0.023	
424.10	0.023	
424.90	0.024	
425.80	0.024	
426.70	0.025	
427.60	0.025	
428.50	0.026	
429.40	0.026	
430.30	0.026	
431.20	0.027	
432.10	0.027	
433.00	0.028	
433.80	0.028	
434.70	0.028	
435.60	0.029	
436.50	0.029	
437.40	0.030	
438.30	0.030	
439.20	0.031	
440.10	0.031	
441.00	0.032	
441.90	0.032	
442.70	0.033	
443.60	0.033	
444.50	0.034	
445.40	0.034	
446.30	0.035	
447.20	0.036	
448.10	0.036	
449.00	0.036	
449.90	0.036	
450.80	0.036	
451.60	0.036	
452.50	0.036	
453.40	0.036	
454.30	0.036	
455.20	0.035	
456.10	0.035	
457.00	0.034	
457.90	0.034	
458.80	0.034	
459.60	0.034	
460.50	0.033	
461.40	0.033	
462.30	0.033	
463.20	0.032	
464.10	0.032	
465.00	0.032	
465.90	0.032	
466.80	0.031	
467.70	0.031	
468.50	0.031	
469.40	0.031	
470.30	0.031	
471.20	0.030	
472.10	0.030	
473.00	0.030	
473.90	0.030	
474.80	0.030	
475.70	0.030	
476.60	0.030	
477.40	0.030	
478.30	0.030	
479.20	0.030	
480.10	0.030	
481.00	0.030	
481.90	0.030	
482.80	0.030	
483.70	0.029	
484.60	0.029	
485.50	0.029	
486.30	0.029	
487.20	0.029	
488.10	0.029	
489.00	0.029	
489.90	0.029	
490.80	0.029	
491.70	0.029	
492.60	0.028	
493.50	0.028	
494.40	0.029	
495.20	0.029	
496.10	0.028	
497.00	0.029	
497.90	0.029	
498.80	0.029	
499.70	0.029	
500.60	0.029	
501.50	0.029	
502.40	0.029	
503.20	0.030	
504.10	0.030	
505.00	0.030	
505.90	0.031	
506.80	0.031	
507.70	0.031	
508.60	0.032	
509.50	0.032	
510.40	0.033	
511.30	0.033	
512.20	0.034	
513.00	0.034	
513.80	0.034	
514.60	0.035	
515.50	0.035	
516.30	0.035	
517.10	0.035	
517.90	0.036	
518.80	0.036	
519.60	0.036	
520.40	0.037	
521.20	0.037	
522.10	0.037	
522.90	0.037	
523.70	0.037	
524.50	0.037	
525.40	0.037	
526.20	0.037	
527.00	0.037	
527.80	0.037	
528.70	0.037	
529.50	0.037	
530.30	0.036	
531.10	0.036	
532.00	0.036	
532.80	0.035	
533.60	0.035	
534.50	0.035	
535.30	0.035	
536.10	0.035	
536.90	0.034	
537.80	0.034	
538.60	0.034	
539.40	0.034	
540.20	0.033	
541.10	0.033	
541.90	0.033	
542.70	0.033	
543.50	0.033	
544.40	0.033	
545.20	0.033	
546.00	0.033	
546.80	0.033	
547.70	0.033	
548.50	0.033	
549.30	0.033	
550.10	0.033	
551.00	0.033	
551.80	0.033	
552.60	0.033	
553.50	0.033	
554.30	0.033	
555.10	0.033	
555.90	0.033	
556.80	0.034	
557.60	0.034	
558.40	0.034	
559.20	0.034	
560.10	0.034	
560.90	0.034	
561.70	0.034	
562.50	0.035	
563.40	0.035	
564.20	0.035	
565.00	0.036	
565.80	0.036	
566.70	0.036	
567.50	0.036	
568.30	0.036	
569.10	0.036	
570.00	0.036	
570.80	0.036	
571.60	0.036	
572.40	0.036	
573.30	0.036	
574.10	0.036	
574.90	0.036	
575.80	0.035	
576.60	0.035	
577.40	0.035	
578.20	0.035	
579.10	0.035	
579.90	0.034	
580.70	0.034	
581.50	0.034	
582.40	0.033	
583.20	0.033	
584.00	0.033	
584.80	0.032	
585.70	0.032	
586.50	0.032	
587.30	0.031	
588.10	0.031	
588.90	0.031	
589.60	0.031	
590.40	0.030	
591.10	0.030	
591.90	0.030	
592.60	0.030	
593.40	0.030	
594.10	0.029	
594.90	0.029	
595.60	0.029	
596.40	0.029	
597.10	0.029	
597.90	0.028	
598.60	0.028	
599.40	0.028	
600.10	0.028	
600.90	0.027	
601.60	0.027	
602.40	0.027	
603.10	0.027	
603.90	0.027	
604.60	0.027	
605.40	0.026	
606.10	0.026	
606.90	0.026	
607.70	0.026	
608.40	0.026	
609.20	0.026	
609.90	0.027	
610.70	0.027	
611.40	0.026	
612.20	0.026	
612.90	0.026	
613.70	0.026	
614.40	0.026	
615.20	0.026	
615.90	0.026	
616.70	0.026	
617.40	0.026	
618.20	0.026	
618.90	0.026	
619.70	0.026	
620.40	0.026	
621.20	0.026	
621.90	0.026	
622.70	0.025	
623.40	0.025	
624.20	0.025	
624.90	0.025	
625.70	0.025	
626.40	0.025	
627.20	0.025	
627.90	0.025	
628.70	0.025	
629.40	0.025	
630.20	0.025	
630.90	0.025	
631.70	0.025	
632.40	0.025	
633.20	0.025	
633.90	0.025	
634.70	0.025	
635.40	0.025	
636.20	0.024	
636.90	0.024	
637.70	0.024	
638.40	0.024	
639.20	0.024	
639.90	0.024	
640.70	0.024	
641.40	0.024	
642.20	0.024	
642.90	0.023	
643.70	0.023	
644.50	0.023	
645.20	0.023	
646.00	0.023	
646.70	0.023	
647.50	0.023	
648.20	0.023	
649.00	0.023	
649.70	0.023	
650.50	0.023	
651.20	0.022	
652.00	0.022	
652.70	0.022	
653.50	0.022	
654.20	0.021	
655.00	0.021	
655.70	0.021	
656.50	0.021	
657.20	0.021	
658.00	0.021	
658.70	0.020	
659.50	0.021	
660.20	0.020	
661.00	0.020	
661.70	0.020	
662.50	0.020	
663.20	0.020	
664.00	0.020	
664.70	0.020	
665.50	0.020	
666.20	0.020	
667.00	0.020	
667.80	0.020	
668.50	0.020	
669.30	0.020	
670.00	0.020	
670.80	0.020	
671.60	0.020	
672.30	0.020	
673.10	0.020	
673.90	0.020	
674.60	0.019	
675.40	0.019	
676.20	0.019	
676.90	0.019	
677.70	0.019	
678.50	0.019	
679.20	0.019	
680.00	0.019	
680.70	0.019	
681.50	0.019	
682.30	0.019	
683.00	0.019	
683.80	0.019	
684.60	0.019	
685.30	0.019	
686.10	0.019	
686.90	0.019	
687.60	0.019	
688.40	0.019	
689.20	0.019	
689.90	0.019	
690.70	0.019	
691.50	0.019	
692.20	0.019	
693.00	0.019	
693.70	0.019	
694.50	0.019	
695.30	0.019	
696.00	0.018	
696.80	0.018	
697.60	0.018	
698.30	0.019	
699.10	0.019	
699.90	0.019	
700.60	0.019	
701.40	0.019	
702.20	0.019	
702.90	0.018	
703.70	0.018	
704.50	0.018	
705.20	0.019	
706.00	0.019	
706.80	0.019	
707.50	0.019	
708.30	0.019	
709.10	0.019	
709.90	0.019	
710.70	0.019	
711.50	0.019	
712.20	0.019	
713.00	0.018	
713.80	0.018	
714.60	0.018	
715.40	0.018	
716.20	0.018	
716.90	0.018	
717.70	0.018	
718.50	0.018	
719.30	0.018	
720.10	0.017	
720.90	0.017	
721.60	0.017	
722.40	0.017	
723.20	0.017	
724.00	0.017	
724.80	0.017	
725.60	0.018	
726.30	0.017	
727.10	0.017	
727.90	0.017	
728.70	0.017	
729.50	0.017	
730.30	0.017	
731.00	0.017	
731.80	0.017	
732.60	0.017	
733.40	0.017	
734.20	0.017	
735.00	0.017	
735.70	0.017	
736.50	0.017	
737.30	0.017	
738.10	0.016	
738.90	0.016	
739.70	0.016	
740.40	0.016	
741.20	0.017	
742.00	0.016	
742.80	0.016	
743.60	0.017	
744.40	0.016	
745.10	0.017	
745.90	0.016	
746.70	0.017	
747.50	0.017	
748.30	0.017	
749.10	0.017	
749.80	0.017	
750.60	0.017	
751.40	0.017	
752.20	0.017	
753.00	0.017	
753.80	0.017	
754.50	0.017	
755.30	0.017	
756.10	0.017	
756.90	0.017	
757.70	0.017	
758.50	0.017	
759.30	0.017	
760.00	0.017	
760.80	0.017	
761.60	0.016	
762.40	0.016	
763.20	0.016	
764.00	0.016	
764.70	0.016	
765.50	0.016	
766.30	0.016	
767.10	0.016	
767.90	0.016	
768.70	0.016	
769.40	0.017	
770.20	0.016	
771.00	0.017	
771.80	0.017	
772.60	0.016	
773.40	0.016	
774.10	0.016	
774.90	0.016	
775.70	0.016	
776.50	0.016	
777.30	0.016	
778.10	0.016	
778.80	0.016	
779.60	0.016	
780.40	0.016	
781.20	0.016	
782.00	0.016	
782.80	0.016	
783.50	0.016	
784.30	0.016	
785.10	0.016	
785.90	0.016	
786.70	0.016	
787.50	0.016	
788.20	0.016	
789.00	0.016	
789.80	0.016	
790.60	0.016	
791.40	0.016	
792.20	0.016	
792.90	0.016	
793.70	0.016	
794.50	0.017	
795.30	0.017	
796.10	0.017	
796.90	0.017	
797.60	0.016	
798.40	0.016	
799.20	0.016	
800.00	0.016	
800.80	0.016	
801.60	0.016	
802.30	0.016	
803.10	0.016	
803.90	0.016	
804.70	0.016	
805.50	0.016	
806.30	0.016	
807.10	0.016	
807.80	0.016	
808.60	0.016	
809.40	0.016	
810.20	0.016	
811.00	0.016	
811.80	0.016	
812.50	0.016	
813.30	0.016	
814.10	0.016	
814.90	0.016	
815.70	0.016	
816.50	0.016	
817.20	0.016	
818.00	0.016	
818.80	0.016	
819.60	0.016	
820.40	0.016	
821.20	0.016	
821.90	0.016	
822.70	0.016	
823.50	0.016	
824.30	0.016	
825.10	0.016	
825.90	0.016	
826.60	0.016	
827.40	0.016	
828.20	0.016	
829.00	0.016	
829.80	0.016	
830.60	0.016	
831.30	0.016	
832.20	0.016	
833.00	0.016	
833.80	0.016	
834.60	0.016	
835.50	0.016	
836.30	0.016	
837.10	0.016	
838.00	0.016	
838.80	0.016	
839.60	0.016	
840.50	0.016	
841.30	0.016	
842.10	0.016	
842.90	0.016	
843.80	0.016	
844.60	0.016	
845.40	0.016	
846.30	0.016	
847.10	0.016	
847.90	0.016	
848.80	0.016	
849.60	0.016	
850.40	0.016	
851.30	0.016	
852.10	0.016	
852.90	0.016	
853.70	0.016	
854.60	0.016	
855.40	0.016	
856.20	0.016	
857.10	0.016	
857.90	0.016	
858.70	0.016	
859.60	0.016	
860.40	0.016	
861.20	0.016	
862.10	0.016	
862.90	0.016	
863.70	0.016	
864.50	0.016	
865.40	0.016	
866.20	0.016	
867.00	0.016	
867.90	0.016	
868.70	0.016	
869.50	0.016	
870.40	0.016	
871.20	0.016	
872.00	0.016	
872.80	0.016	
873.70	0.016	
874.50	0.016	
875.30	0.016	
876.20	0.016	
877.00	0.016	
877.80	0.016	
878.70	0.016	
879.50	0.016	
880.30	0.016	
881.20	0.016	
882.00	0.016	
882.80	0.016	
883.60	0.016	
884.50	0.016	
885.30	0.016	
886.10	0.016	
887.00	0.016	
887.80	0.015	
888.60	0.016	
889.50	0.016	
890.30	0.016	
891.10	0.016	
892.00	0.016	
892.80	0.016	
893.60	0.016	
894.40	0.016	
895.30	0.016	
896.10	0.016	
896.90	0.016	
897.80	0.016	
898.60	0.016	
899.40	0.016	
900.30	0.016	
901.10	0.016	
901.90	0.016	
902.80	0.016	
903.60	0.016	
904.40	0.016	
905.20	0.016	
906.10	0.016	
906.90	0.016	
907.70	0.016	
908.60	0.016	
909.40	0.016	
910.20	0.016	
911.10	0.016	
911.90	0.016	
912.70	0.016	
913.50	0.016	
914.40	0.016	
915.20	0.016	
916.00	0.016	
916.90	0.016	
917.70	0.016	
918.50	0.016	
919.40	0.016	
920.20	0.016	
921.00	0.016	
921.90	0.016	
922.70	0.016	
923.50	0.016	
924.30	0.016	
925.20	0.016	
926.00	0.015	
926.80	0.016	
927.70	0.015	
928.50	0.015	
929.30	0.015	
930.20	0.015	
931.00	0.015	
931.80	0.015	
932.70	0.016	
933.50	0.016	
934.30	0.016	
935.10	0.016	
936.00	0.016	
936.80	0.016	
937.60	0.016	
938.50	0.016	
939.30	0.015	
940.20	0.015	
941.00	0.015	
941.80	0.015	
942.60	0.015	
943.50	0.015	
944.30	0.015	
945.10	0.015	
946.00	0.015	
946.80	0.015	
947.60	0.016	
948.50	0.015	
949.30	0.016	